*2020/07/16 16:12:07.03
*IOS HEADER VERSION 2.0      2016/04/28 2016/06/13 IVF16

*FILE
    START TIME          : UTC 2015/06/09 15:05:22.000
    TIME INCREMENT      : 0 0 0 0.416667E-01 0  ! (day hr min sec ms)
    NUMBER OF RECORDS   : 17
    DATA DESCRIPTION    : Bottle:Rosette:Up:Stop + CTD:Up
    FILE TYPE           : ASCII
    CRC                 : 5CCBD239
    NUMBER OF CHANNELS  : 53

    $TABLE: CHANNELS
    ! No Name                                        Units           Minimum        Maximum
    !--- ------------------------------------------- --------------- -------------- --------------
       1 Sample_Number                               n/a             118            134
       2 Bottle_Number                               n/a             1              17
       3 Bottle:Firing_Sequence                      n/a             1              17
       4 Pressure                                    decibar         2.9            299
       5 Temperature:Primary                         'deg C (ITS90)' 6.2288         12.0299
       6 Transmissivity                              %/metre         33.7           65.5
       7 Fluorescence:URU:Seapoint                   mg/m^3          0.102          3.484
       8 PAR                                         uE/m^2/sec      0              743.4
       9 Salinity:T0:C0                              PSS-78          31.8273        33.9572
      10 Oxygen:Dissolved:SBE                        mL/L            1.97           6.61
      11 Oxygen:Dissolved:SBE                        umol/kg         85.4           288.1
      12 Number_of_bin_records                       n/a             121            241
      13 Nitrate_plus_Nitrite                        umol/L          0.3E-01        36.18
      14 Flag:Nitrate_plus_Nitrite                   n/a
      15 Silicate                                    umol/L          0.89           58.04
      16 Flag:Silicate                               n/a
      17 Phosphate                                   umol/L          0.305          2.538
      18 Flag:Phosphate                              n/a
      19 Dimethyl_Sulphide                           nmol/L          0              2.62
      20 Flag:Dimethyl_Sulphide                      n/a
      21 Dimethylsulfoniopropionate_Dissolved        nmol/L          -99            -99
      22 Flag:Dimethylsulfoniopropionate_Dissolved   ' '
      23 Dimethylsulfoniopropionate_Total            nmol/L          -99            -99
      24 Flag:Dimethylsulfoniopropionate_Total       ' '
      25 Chlorophyll:Extracted                       mg/m^3          0.23           3.47
      26 Flag:Chlorophyll:Extracted                  n/a
      27 Phaeo-Pigment:Extracted                     mg/m^3          0.55           0.92
      28 HPLC:Chl-c3                                 mg/m^3          0.66E-01       0.84E-01
      29 HPLC:Chlide-a                               mg/m^3          0.89E-01       0.117
      30 HPLC:MgDVP                                  mg/m^3          0.2E-01        0.34E-01
      31 HPLC:Chl-c2                                 mg/m^3          0.279          0.288
      32 HPLC:Chl-c1                                 mg/m^3          0.6E-01        0.68E-01
      33 HPLC:Me-chlide                              mg/m^3          0.27E-01       0.52E-01
      34 HPLC:Peri                                   mg/m^3          0              0.19E-01
      35 HPLC:Pheide-a                               mg/m^3          0              0
      36 HPLC:But-fuco                               mg/m^3          0              0
      37 HPLC:Fuco                                   mg/m^3          1.17           1.247
      38 HPLC:Neo                                    mg/m^3          0              0
      39 HPLC:Pras                                   mg/m^3          0              0
      40 HPLC:Viola                                  mg/m^3          0              0
      41 HPLC:Hex-fuco                               mg/m^3          0.4E-02        0.1E-01
      42 HPLC:Diadino                                mg/m^3          0.97E-01       0.131
      43 HPLC:Allo                                   mg/m^3          0.1E-01        0.12E-01
      44 HPLC:Diato                                  mg/m^3          0.3E-02        0.15E-01
      45 HPLC:Zea                                    mg/m^3          0.4E-02        0.7E-02
      46 HPLC:Lut                                    mg/m^3          0              0
      47 HPLC:Chl-b                                  mg/m^3          0.23E-01       0.48E-01
      48 HPLC:DVChl-a                                mg/m^3          0              0
      49 HPLC:Chl-a                                  mg/m^3          2.12           2.309
      50 HPLC:Phe-a                                  mg/m^3          0              0.164
      51 HPLC:B-Car                                  mg/m^3          0.37E-01       0.42E-01
      52 HPLC:TChl-a                                 mg/m^3          2.251          2.457
      53 Flag:HPLC                                   ' '
    $END

    $TABLE: CHANNEL DETAIL
    ! No  Pad   Start  Width  Format  Type  Decimal_Places
    !---  ----  -----  -----  ------  ----  --------------
       1  -99   ' '        5  I       I       0
       2  -99   ' '        3  I       I       0
       3  -99   ' '        3  I       I       0
       4  -99   ' '        7  F       ' '     1
       5  -99   ' '        9  F       ' '     4
       6  -99   ' '        6  F       ' '     1
       7  -99   ' '        8  F       ' '     3
       8  -99   ' '        7  F       ' '     1
       9  -99   ' '        9  F       ' '     4
      10  -99   ' '        7  F       ' '     2
      11  -99   ' '        6  F       ' '     1
      12  -99   ' '        5  I       I       0
      13  -99   ' '        7  F       R4      2
      14  0     ' '        3  NQ      C     ' '
      15  -99   ' '        7  F       R4      2
      16  0     ' '        3  NQ      C     ' '
      17  -99   ' '        8  F       R4      3
      18  0     ' '        3  NQ      C     ' '
      19  -99   ' '        7  F       R4      2
      20  0     ' '        3  NQ      C     ' '
      21  -99   ' '        7  F       R4      2
      22  0     ' '        3  NQ      C     ' '
      23  -99   ' '        7  F       R4      2
      24  0     ' '        3  NQ      C     ' '
      25  -99   ' '        7  F       R4      2
      26  0     ' '        3  NQ      C     ' '
      27  -99   ' '        7  F       R4      2
      28  -99   ' '        8  F       R4      3
      29  -99   ' '        8  F       R4      3
      30  -99   ' '        8  F       R4      3
      31  -99   ' '        8  F       R4      3
      32  -99   ' '        8  F       R4      3
      33  -99   ' '        8  F       R4      3
      34  -99   ' '        8  F       R4      3
      35  -99   ' '        8  F       R4      3
      36  -99   ' '        8  F       R4      3
      37  -99   ' '        8  F       R4      3
      38  -99   ' '        8  F       R4      3
      39  -99   ' '        8  F       R4      3
      40  -99   ' '        8  F       R4      3
      41  -99   ' '        8  F       R4      3
      42  -99   ' '        8  F       R4      3
      43  -99   ' '        8  F       R4      3
      44  -99   ' '        8  F       R4      3
      45  -99   ' '        8  F       R4      3
      46  -99   ' '        8  F       R4      3
      47  -99   ' '        8  F       R4      3
      48  -99   ' '        8  F       R4      3
      49  -99   ' '        8  F       R4      3
      50  -99   ' '        8  F       R4      3
      51  -99   ' '        8  F       R4      3
      52  -99   ' '        8  F       R4      3
      53  0     ' '        3  NQ      C     ' '
    $END
    $REMARKS
        Flag channels were initialized with zeros. Non-zero values have the following significance:
        ----------------------------------------------------------------------------------
        1 = Sample for this measurement was collected but not analyzed. Sample lost.
        2 = Acceptable Measurement
        3 = Questionable Measurement (Probably Good)
        4 = Poor Measurement (Probably Bad)
        5 = Measurement Not Reported (Bad)
        6 = Mean of replicate measurements
        7 = Manual chromatographic peak measurement
        8 = Irregular digital chromatographic peak integration
        9 = Sample was planned for this measurement from this bottle but was not collected
        ----------------------------------------------------------------------------------
    $END

*ADMINISTRATION
    MISSION             : 2015-09
    AGENCY              : IOS, Ocean Sciences Division, Sidney, B.C.
    COUNTRY             : Canada
    PROJECT             : Line P
    SCIENTIST           : Robert M.
    PLATFORM            : John P. Tully

*LOCATION
    GEOGRAPHIC AREA     : North-East Pacific
    STATION             : P4
    EVENT NUMBER        : 17
    LATITUDE            :  48  39.19000 N  ! (deg min)
    LONGITUDE           : 126  41.06000 W  ! (deg min)
    WATER DEPTH         : 1340

*INSTRUMENT
    TYPE                : Sea-Bird CTD
    MODEL               : SBE-911plus
    SERIAL NUMBER       : 0506
    LOCATION            : Mid-ship                              ! custom item

    $TABLE: SENSORS
    !   Name                                 Abs Depth       Serial No
    !   -----------------------------------  --------------  ----------
        Temperature                          ' '             2023
        Conductivity                         ' '             1763
        'Pressure:Digiquartz with TC'        ' '             0506
        Temperature:2                        ' '             5013
        Conductivity:2                       ' '             3394
        'Oxygen:SBE 43'                      ' '             1438
        Fluorometer:Seapoint                 ' '             3640
        'Transmissometer:WET Labs C-Star'    ' '             1396DR
        Altimeter                            ' '             62354
        PAR/Irradiance:Biospherical/Licor    ' '             4565
    $END
    $REMARKS
        SOFTWARE VERSION SEASAVE V 7.22.4
    $END

*HISTORY

    $TABLE: PROGRAMS
    !   Name     Vers   Date       Time     Recs In   Recs Out
    !   -------- ------ ---------- -------- --------- ---------
        SBE_IOS  3.4.1  2015/07/31 14:44:34      3859      3859
        CLEAN    5.2.1  2015/07/31 14:46:27      3859      3859
        ADDSAMP  3.6    2015/08/11 11:40:18      3859      3859
        BINAVE   4.2    2015/08/11 11:40:55      3859        17
        MERGE    3.5    2015/08/28 11:55:22        17        17
        CLEAN    5.2.1  2015/08/28 13:40:51        17        17
        CALIB    11.8.1 2015/08/28 13:41:27        17        17
        SORT     3.6    2015/08/28 13:41:42        17        17
        REMOVECH 8.2    2015/08/28 13:42:41        17        17
        CHGUNITS 3.1    2015/08/28 13:49:42        17        17
        CHGUNITS 3.1    2015/08/28 13:50:01        17        17
        REORDER  1.3.1  2015/08/28 13:50:07 ?         ?
        HDREDIT2 3.0.2  2015/08/28 13:50:39 ?         ?
        SORT     3.6    2019/06/19 11:08:08        17        17
        MERGE    3.5    2019/06/19 11:08:14        17        17
        SORT     3.6    2019/06/19 11:08:42        17        17
        HDREDIT2 3.2    2020/01/22 12:37:30 ?         ?
        SORT     3.6    2020/07/16 15:10:22        17        17
        REORDER  1.3.1  2020/07/16 15:10:34 ?         ?
        MERGE    3.5.1  2020/07/16 16:09:12        17        17
        SORT     3.6    2020/07/16 16:09:35        17        17
        HDREDIT2 3.2    2020/07/16 16:11:53 ?         ?
        HDREDIT2 3.2    2020/07/16 16:12:07 ?         ?
    $END
$REMARKS
    -CLEAN functions: 2015/07/31 14:46:19 20
     Reset #RECS, MIN & MAX values in header.
     Interpolation by   Channel  1: Scan_Number [n/a] in Pressure
     Set event to last  4 characters of file name
    -The following ADDSAMP parameters were used:
     Sample Number Lookup File: P:\Cruise_Data_Processing\2015-09\Processing\hydro\addsamp.csv
     Bottle Channel Name: Bottle_Number
    -The following BINAVE parameters were used:
     Bin channel = Bottle_Number
     Averaging interval =    1.00
     Minimum bin value =       0.000
     Bin value was used
     Interpolated values were NOT used for empty bins
     Channel 'NUMBER_OF_BIN_RECORDS' was added to file.
    -The following MERGE parameters were used: 2015/08/28 11:55:22
     Merge Channel: Bottle_Number
     Merge Scheme Used: Add Secondary to Primary
     Overlap Scheme Used: Keep Primary
     Primary Channels to Include: ALL
     Secondary Channels to Include:
       Salinity:Bottle,
       Flag:Salinity:Bottle,
       Chlorophyll:Extracted,
       Flag:Chlorophyll:Extracted,
       Phaeo-Pigment:Extracted,
       Oxygen:Dissolved,
       Flag:Oxygen:Dissolved,
       Temperature:Draw,
       Nitrate_plus_Nitrite,
       Flag:Nitrate_plus_Nitrite,
       Silicate,
       Flag:Silicate,
       Phosphate,
       Flag:Phosphate,
       Ammonium,
       Flag:Ammonium,
       pH,
       Flag:pH,
       Dimethyl_Sulphide,
       Flag:Dimethyl_Sulphide
     Primary file  : P:\Cruise_Data_Processing\2015-09\Processing\hydro\2015-09-0017.samavg
     Secondary file: P:\Cruise_Data_Processing\2015-09\Processing\hydro\2015-09-0017.mrgcln1s

    Comments from secondary file:
    P:\Cruise_Data_Processing\2015-09\Processing\hydro\2015-09-0017.mrgcln1s
    ------------------------------------------------------------------------
    -SORT parameters: 2015/08/28 11:51:21
    Sorted in ascending order of channel Bottle_Number
    -CLEAN functions: 2015/08/28 13:40:50 20
     Reset #RECS, MIN & MAX values in header.
     Change character data from " " to "0" in channels Flag:*
     Set event to last  4 characters of file name
    -CALIB parameters: 2015/08/28 13:41:27
     Calibration type = Correct
     Mode: ONLY - calibration specs from Cal File only.
     Calibration file = P:\Cruise_Data_Processing\2015-09\Processing\doc\2015-09-recal1.CCF
     Calibrations applied:
     Ch Name                          Units    Fmla Coefficents
     -- ----------------------------- --------- --- -----------------------------
     18 Oxygen:Dissolved:SBE          mL/L       10  0.4520000E-01  0.1024600E+01
    -SORT parameters: 2015/08/28 13:41:42
     Sorted in ascending order of channel Pressure*
    -REMOVECH 2015/08/28 13:42:41
     The following CHANNEL(S) were removed:
      Scan_Number
      Temperature:Secondary [deg C (ITS90)]
      Conductivity:Primary [S/m]
      Conductivity:Secondary [S/m]
      Oxygen:Voltage:SBE [volts]
      Altimeter [metres]
      Descent_Rate [m/s]
      Status:Pump
      Salinity:T1:C1 [PSS-78]
      Flag
    -CHANGE units:
     Temperature reference channel: Temperature:Primary
     Salinity    reference channel: Salinity:T0:C0
     'Oxygen:Dissolved:SBE' changed from mL/L    to umol/kg
    -CHANGE units:
     Temperature reference channel: Temperature:Draw
     Salinity    reference channel: Salinity:T0:C0
    - No units changed
    -HEADER EDITS: 2015/08/28 13:50:39
     Applied edit header: P:\Cruise_Data_Processing\2015-09\Processing\doc\HYDRO\2015-09-bot-hdr.txt
     Channel  2: Bottle:Firing_Sequence [n/a]
       Name:   Bottle_Number ==> Bottle:Firing_Sequence
     Channel  1: Bottle_Number [n/a]
       Name:   Bottle:Position ==> Bottle_Number
     Channel  3: Pressure [decibar]
       Format: F9.4 ==> F7.1
     Channel  7: PAR [uE/m^2/sec]
       Format: F11.3 ==> F7.1
     Channel  9: Oxygen:Dissolved:SBE [mL/L]
       Format: F8.3 ==> F7.2
     Channel 13: Chlorophyll:Extracted [mg/m^3]
       Units: ==> mg/m^3
       Format: F8.3 ==> F7.2
     Channel 14: Flag:Chlorophyll:Extracted [n/a]
       Units: ==> n/a
     Channel 15: Phaeo-Pigment:Extracted [mg/m^3]
       Units: ==> mg/m^3
     Channel 16: Nitrate_plus_Nitrite [umol/L]
       Units: ==> umol/L
       Format: F6.2 ==> F7.2
     Channel 17: Flag:Nitrate_plus_Nitrite [n/a]
       Units: ==> n/a
     Channel 18: Silicate [umol/L]
       Units: ==> umol/L
     Channel 19: Flag:Silicate [n/a]
       Units: ==> n/a
     Channel 20: Phosphate [umol/L]
       Units: ==> umol/L
     Channel 21: Flag:Phosphate [n/a]
       Units: ==> n/a
     Channel 22: Dimethyl_Sulphide [nmol/L]
       Units: ==> nmol/L
     Channel 23: Flag:Dimethyl_Sulphide [n/a]
       Units: ==> n/a
    -SORT parameters: 2019/06/19 11:08:08
     Sorted in ascending order of channel Sample_Number
    -The following MERGE parameters were used: 2019/06/19 11:08:14
     Merge Channel: Sample_Number
     Merge Scheme Used: Add Secondary to Primary
     Overlap Scheme Used: Keep Primary
     Primary Channels to Include: ALL
     Secondary Channels to Include:
       Dimethylsulfoniopropionate_Dissolved,
       Flag:Dimethylsulfoniopropionate_Dissolve,
       Dimethylsulfoniopropionate_Total,
       Flag:Dimethylsulfoniopropionate_Total
     Primary file  : P:\Cruise_Data_Processing\DMSP\2015-09\original\2015-009-0017.che1
     Secondary file: P:\Cruise_Data_Processing\DMSP\2015-09\original\2015-009-0017.dmsp
    -SORT parameters: 2019/06/19 11:08:42
     Sorted in ascending order of channel Pressure
    -HEADER EDITS: 2020/01/22 12:37:30 - none.
    -SORT parameters: 2020/07/16 15:10:22
     Sorted in ascending order of channel Sample_Number
    -The following MERGE parameters were used: 2020/07/16 16:09:12
     Merge Channel: Sample_Number
     Merge Scheme Used: Add Secondary to Primary
     Overlap Scheme Used: Keep Primary
     Primary Channels to Include: ALL
     Secondary Channels to Include:
       HPLC:Chl-c3,
       HPLC:Chlide-a,
       HPLC:MgDVP,
       HPLC:Chl-c2,
       HPLC:Chl-c1,
       HPLC:Me-chlide,
       HPLC:Peri,
       HPLC:Pheide-a,
       HPLC:But-fuco,
       HPLC:Fuco,
       HPLC:Neo,
       HPLC:Pras,
       HPLC:Viola,
       HPLC:Hex-fuco,
       HPLC:Diadino,
       HPLC:Allo,
       HPLC:Diato,
       HPLC:Zea,
       HPLC:Lut,
       HPLC:Chl-b,
       HPLC:DVChl-a,
       HPLC:Chl-a,
       HPLC:Phe-a,
       HPLC:B-Car,
       HPLC:TChl-a,
       Flag:HPLC
     Primary file  : D:\Telework\HPLC\2015-009\Processing\2015-009-0017.CHE2
     Secondary file: D:\Telework\HPLC\2015-009\Processing\2015-009-0017.hplc
    -SORT parameters: 2020/07/16 16:09:35
     Sorted in ascending order of channel Pressure
    -HEADER EDITS: 2020/07/16 16:11:53
     Applied edit header: D:\Telework\HPLC\2015-009\Processing\DOC\2015-009-bot-hdr1.txt
     Channel 12: Number_of_bin_records [n/a]
       Pad:    ' ' ==> -99
     Channel 48: HPLC:DVChl-a [mg/m^3]
       Pad:    0 ==> -99
    -HEADER EDITS: 2020/07/16 16:12:07
     Applied edit header: D:\Telework\HPLC\2015-009\Processing\DOC\2015-009-bot-hdr2.txt
$END

*COMMENTS
  SBE HEADER
    Sea-Bird SBE 9 Data File:
    FileName = E:\Data\2015-09\2015-09-0017.hex
    Software Version Seasave V 7.22.4
    Temperature SN = 2023
    Conductivity SN = 1763
    Number of Bytes Per Scan = 37
    Number of Voltage Words = 4
    Number of Scans Averaged by the Deck Unit = 1
    System UpLoad Time = Jun 09 2015 15:07:38
    NMEA Latitude = 48 39.19 N
    NMEA Longitude = 126 41.06 W
    NMEA UTC (Time) = Jun 09 2015  15:05:22
    Store Lat/Lon Data = Append to Every Scan
    SBE 11plus V 5.1e
    number of scans to average = 1
    pressure baud rate = 9600
    NMEA baud rate = 4800
    GPIB address = 1
